#Distance(A)    Macroscopic-Average    Planar-Average
  0.0000             0.00025             0.00033
  0.0626             0.00026             0.00039
  0.1253             0.00026             0.00037
  0.1879             0.00026             0.00029
  0.2506             0.00027             0.00020
  0.3132             0.00027             0.00015
  0.3758             0.00028             0.00019
  0.4385             0.00029             0.00028
  0.5011             0.00030             0.00038
  0.5637             0.00030             0.00043
  0.6264             0.00031             0.00041
  0.6890             0.00031             0.00033
  0.7517             0.00031             0.00024
  0.8143             0.00032             0.00020
  0.8769             0.00032             0.00023
  0.9396             0.00033             0.00033
  1.0022             0.00034             0.00042
  1.0648             0.00034             0.00047
  1.1275             0.00035             0.00044
  1.1901             0.00035             0.00036
  1.2528             0.00035             0.00027
  1.3154             0.00035             0.00024
  1.3780             0.00036             0.00027
  1.4407             0.00037             0.00037
  1.5033             0.00038             0.00046
  1.5659             0.00038             0.00050
  1.6286             0.00038             0.00047
  1.6912             0.00038             0.00039
  1.7539             0.00039             0.00030
  1.8165             0.00039             0.00027
  1.8791             0.00040             0.00031
  1.9418             0.00040             0.00040
  2.0044             0.00041             0.00049
  2.0670             0.00042             0.00053
  2.1297             0.00042             0.00050
  2.1923             0.00042             0.00041
  2.2550             0.00042             0.00033
  2.3176             0.00042             0.00031
  2.3802             0.00043             0.00035
  2.4429             0.00044             0.00044
  2.5055             0.00045             0.00053
  2.5682             0.00045             0.00057
  2.6308             0.00045             0.00053
  2.6934             0.00046             0.00045
  2.7561             0.00046             0.00037
  2.8187             0.00046             0.00034
  2.8813             0.00047             0.00039
  2.9440             0.00047             0.00049
  3.0066             0.00048             0.00057
  3.0693             0.00049             0.00061
  3.1319             0.00049             0.00056
  3.1945             0.00049             0.00048
  3.2572             0.00049             0.00040
  3.3198             0.00049             0.00038
  3.3824             0.00050             0.00043
  3.4451             0.00050             0.00053
  3.5077             0.00051             0.00061
  3.5704             0.00051             0.00064
  3.6330             0.00051             0.00060
  3.6956             0.00050             0.00051
  3.7583             0.00050             0.00043
  3.8209             0.00050             0.00041
  3.8835             0.00050             0.00047
  3.9462             0.00050             0.00056
  4.0088             0.00050             0.00064
  4.0715             0.00049             0.00066
  4.1341             0.00048             0.00060
  4.1967             0.00047             0.00051
  4.2594             0.00046             0.00043
  4.3220             0.00045             0.00040
  4.3846             0.00044             0.00045
  4.4473             0.00043             0.00054
  4.5099             0.00042             0.00060
  4.5726             0.00040             0.00060
  4.6352             0.00039             0.00053
  4.6978             0.00037             0.00042
  4.7605             0.00035             0.00032
  4.8231             0.00033             0.00029
  4.8858             0.00031             0.00032
  4.9484             0.00029             0.00039
  5.0110             0.00028             0.00044
  5.0737             0.00026             0.00042
  5.1363             0.00023             0.00033
  5.1989             0.00021             0.00020
  5.2616             0.00018             0.00009
  5.3242             0.00016             0.00005
  5.3869             0.00014             0.00008
  5.4495             0.00011             0.00014
  5.5121             0.00009             0.00017
  5.5748             0.00006             0.00014
  5.6374             0.00002             0.00004
  5.7000            -0.00003            -0.00008
  5.7627            -0.00008            -0.00017
  5.8253            -0.00015            -0.00019
  5.8880            -0.00022            -0.00014
  5.9506            -0.00031            -0.00006
  6.0132            -0.00042            -0.00001
  6.0759            -0.00055            -0.00003
  6.1385            -0.00072            -0.00012
  6.2011            -0.00093            -0.00024
  6.2638            -0.00117            -0.00033
  6.3264            -0.00146            -0.00036
  6.3891            -0.00180            -0.00032
  6.4517            -0.00219            -0.00029
  6.5143            -0.00265            -0.00031
  6.5770            -0.00318            -0.00045
  6.6396            -0.00377            -0.00070
  6.7022            -0.00441            -0.00102
  6.7649            -0.00506            -0.00137
  6.8275            -0.00567            -0.00172
  6.8902            -0.00622            -0.00210
  6.9528            -0.00664            -0.00258
  7.0154            -0.00691            -0.00322
  7.0781            -0.00697            -0.00409
  7.1407            -0.00679            -0.00518
  7.2033            -0.00634            -0.00645
  7.2660            -0.00561            -0.00785
  7.3286            -0.00465            -0.00938
  7.3913            -0.00353            -0.01106
  7.4539            -0.00236            -0.01295
  7.5165            -0.00125            -0.01507
  7.5792            -0.00029            -0.01731
  7.6418             0.00044            -0.01940
  7.7045             0.00093            -0.02093
  7.7671             0.00116            -0.02142
  7.8297             0.00117            -0.02053
  7.8924             0.00101            -0.01812
  7.9550             0.00073            -0.01421
  8.0176             0.00038            -0.00884
  8.0803             0.00002            -0.00207
  8.1429            -0.00030             0.00596
  8.2056            -0.00055             0.01481
  8.2682            -0.00072             0.02366
  8.3308            -0.00078             0.03133
  8.3935            -0.00074             0.03653
  8.4561            -0.00061             0.03834
  8.5187            -0.00037             0.03644
  8.5814            -0.00003             0.03127
  8.6440             0.00041             0.02381
  8.7067             0.00094             0.01525
  8.7693             0.00155             0.00672
  8.8319             0.00222            -0.00091
  8.8946             0.00290            -0.00708
  8.9572             0.00355            -0.01149
  9.0198             0.00410            -0.01411
  9.0825             0.00447            -0.01507
  9.1451             0.00462            -0.01471
  9.2078             0.00449            -0.01350
  9.2704             0.00405            -0.01183
  9.3330             0.00332            -0.00998
  9.3957             0.00237            -0.00816
  9.4583             0.00128            -0.00650
  9.5209             0.00018            -0.00508
  9.5836            -0.00082            -0.00391
  9.6462            -0.00164            -0.00289
  9.7089            -0.00223            -0.00187
  9.7715            -0.00260            -0.00069
  9.8341            -0.00275             0.00066
  9.8968            -0.00273             0.00205
  9.9594            -0.00255             0.00320
 10.0221            -0.00227             0.00380
 10.0847            -0.00191             0.00365
 10.1473            -0.00152             0.00280
 10.2100            -0.00112             0.00155
 10.2726            -0.00075             0.00036
 10.3352            -0.00041            -0.00032
 10.3979            -0.00013            -0.00020
 10.4605             0.00012             0.00070
 10.5232             0.00033             0.00207
 10.5858             0.00051             0.00340
 10.6484             0.00066             0.00419
 10.7111             0.00077             0.00412
 10.7737             0.00084             0.00318
 10.8363             0.00084             0.00166
 10.8990             0.00074            -0.00000
 10.9616             0.00055            -0.00136
 11.0243             0.00027            -0.00214
 11.0869            -0.00008            -0.00231
 11.1495            -0.00048            -0.00205
 11.2122            -0.00089            -0.00161
 11.2748            -0.00128            -0.00117
 11.3374            -0.00162            -0.00081
 11.4001            -0.00189            -0.00048
 11.4627            -0.00210            -0.00010
 11.5254            -0.00226             0.00036
 11.5880            -0.00238             0.00081
 11.6506            -0.00250             0.00109
 11.7133            -0.00259             0.00096
 11.7759            -0.00265             0.00031
 11.8385            -0.00265            -0.00084
 11.9012            -0.00258            -0.00238
 11.9638            -0.00244            -0.00416
 12.0265            -0.00223            -0.00604
 12.0891            -0.00200            -0.00790
 12.1517            -0.00175            -0.00957
 12.2144            -0.00153            -0.01078
 12.2770            -0.00132            -0.01125
 12.3397            -0.00114            -0.01075
 12.4023            -0.00098            -0.00927
 12.4649            -0.00084            -0.00706
 12.5276            -0.00071            -0.00455
 12.5902            -0.00060            -0.00220
 12.6528            -0.00052            -0.00028
 12.7155            -0.00046             0.00113
 12.7781            -0.00042             0.00219
 12.8408            -0.00039             0.00308
 12.9034            -0.00034             0.00394
 12.9660            -0.00026             0.00474
 13.0287            -0.00014             0.00537
 13.0913             0.00004             0.00570
 13.1539             0.00026             0.00571
 13.2166             0.00052             0.00547
 13.2792             0.00080             0.00510
 13.3419             0.00107             0.00474
 13.4045             0.00130             0.00446
 13.4671             0.00147             0.00429
 13.5298             0.00156             0.00416
 13.5924             0.00158             0.00396
 13.6550             0.00155             0.00358
 13.7177             0.00150             0.00297
 13.7803             0.00146             0.00220
 13.8430             0.00145             0.00140
 13.9056             0.00147             0.00071
 13.9682             0.00151             0.00023
 14.0309             0.00155            -0.00006
 14.0935             0.00158            -0.00026
 14.1561             0.00159            -0.00052
 14.2188             0.00160            -0.00095
 14.2814             0.00160            -0.00157
 14.3441             0.00160            -0.00234
 14.4067             0.00160            -0.00312
 14.4693             0.00159            -0.00375
 14.5320             0.00157            -0.00407
 14.5946             0.00152            -0.00391
 14.6573             0.00145            -0.00319
 14.7199             0.00137            -0.00188
 14.7825             0.00131            -0.00012
 14.8452             0.00131             0.00186
 14.9078             0.00137             0.00373
 14.9704             0.00152             0.00519
 15.0331             0.00171             0.00606
 15.0957             0.00189             0.00633
 15.1584             0.00202             0.00617
 15.2210             0.00203             0.00581
 15.2836             0.00189             0.00543
 15.3463             0.00162             0.00510
 15.4089             0.00123             0.00477
 15.4715             0.00079             0.00428
 15.5342             0.00034             0.00355
 15.5968            -0.00007             0.00259
 15.6595            -0.00042             0.00161
 15.7221            -0.00068             0.00098
 15.7847            -0.00087             0.00105
 15.8474            -0.00102             0.00200
 15.9100            -0.00114             0.00365
 15.9726            -0.00126             0.00542
 16.0353            -0.00140             0.00650
 16.0979            -0.00153             0.00612
 16.1606            -0.00167             0.00384
 16.2232            -0.00179            -0.00020
 16.2858            -0.00190            -0.00536
 16.3485            -0.00198            -0.01065
 16.4111            -0.00205            -0.01505
 16.4737            -0.00211            -0.01783
 16.5364            -0.00215            -0.01867
 16.5990            -0.00218            -0.01765
 16.6617            -0.00219            -0.01518
 16.7243            -0.00218            -0.01184
 16.7869            -0.00214            -0.00825
 16.8496            -0.00210            -0.00492
 16.9122            -0.00209            -0.00223
 16.9749            -0.00213            -0.00033
 17.0375            -0.00224             0.00084
 17.1001            -0.00239             0.00148
 17.1628            -0.00255             0.00185
 17.2254            -0.00267             0.00213
 17.2880            -0.00270             0.00241
 17.3507            -0.00260             0.00265
 17.4133            -0.00234             0.00282
 17.4760            -0.00194             0.00285
 17.5386            -0.00143             0.00274
 17.6012            -0.00086             0.00254
 17.6639            -0.00027             0.00232
 17.7265             0.00030             0.00217
 17.7891             0.00083             0.00214
 17.8518             0.00131             0.00222
 17.9144             0.00172             0.00233
 17.9771             0.00206             0.00233
 18.0397             0.00234             0.00209
 18.1023             0.00257             0.00154
 18.1650             0.00275             0.00072
 18.2276             0.00291            -0.00025
 18.2902             0.00304            -0.00117
 18.3529             0.00315            -0.00183
 18.4155             0.00323            -0.00209
 18.4782             0.00328            -0.00187
 18.5408             0.00330            -0.00112
 18.6034             0.00331             0.00014
 18.6661             0.00331             0.00182
 18.7287             0.00336             0.00375
 18.7913             0.00349             0.00570
 18.8540             0.00373             0.00738
 18.9166             0.00409             0.00854
 18.9793             0.00454             0.00905
 19.0419             0.00503             0.00893
 19.1045             0.00545             0.00839
 19.1672             0.00571             0.00766
 19.2298             0.00575             0.00697
 19.2924             0.00552             0.00641
 19.3551             0.00505             0.00592
 19.4177             0.00438             0.00533
 19.4804             0.00360             0.00455
 19.5430             0.00280             0.00363
 19.6056             0.00203             0.00287
 19.6683             0.00135             0.00278
 19.7309             0.00076             0.00387
 19.7936             0.00024             0.00639
 19.8562            -0.00022             0.01008
 19.9188            -0.00065             0.01414
 19.9815            -0.00105             0.01731
 20.0441            -0.00143             0.01825
 20.1067            -0.00176             0.01597
 20.1694            -0.00205             0.01029
 20.2320            -0.00229             0.00189
 20.2947            -0.00249            -0.00775
 20.3573            -0.00266            -0.01686
 20.4199            -0.00282            -0.02385
 20.4826            -0.00295            -0.02776
 20.5452            -0.00308            -0.02839
 20.6078            -0.00318            -0.02628
 20.6705            -0.00326            -0.02239
 20.7331            -0.00334            -0.01777
 20.7958            -0.00344            -0.01332
 20.8584            -0.00360            -0.00958
 20.9210            -0.00386            -0.00674
 20.9837            -0.00423            -0.00471
 21.0463            -0.00468            -0.00325
 21.1089            -0.00517            -0.00210
 21.1716            -0.00561            -0.00112
 21.2342            -0.00591            -0.00029
 21.2969            -0.00597             0.00035
 21.3595            -0.00577             0.00073
 21.4221            -0.00529             0.00084
 21.4848            -0.00460             0.00073
 21.5474            -0.00377             0.00050
 21.6100            -0.00287             0.00027
 21.6727            -0.00198             0.00014
 21.7353            -0.00116             0.00022
 21.7980            -0.00042             0.00053
 21.8606             0.00022             0.00103
 21.9232             0.00076             0.00160
 21.9859             0.00121             0.00206
 22.0485             0.00159             0.00224
 22.1112             0.00190             0.00203
 22.1738             0.00217             0.00145
 22.2364             0.00240             0.00062
 22.2991             0.00259            -0.00026
 22.3617             0.00275            -0.00096
 22.4243             0.00288            -0.00126
 22.4870             0.00299            -0.00102
 22.5496             0.00309            -0.00017
 22.6123             0.00319             0.00122
 22.6749             0.00332             0.00300
 22.7375             0.00351             0.00487
 22.8002             0.00380             0.00652
 22.8628             0.00419             0.00769
 22.9254             0.00465             0.00823
 22.9881             0.00512             0.00819
 23.0507             0.00553             0.00776
 23.1134             0.00579             0.00720
 23.1760             0.00582             0.00669
 23.2386             0.00562             0.00633
 23.3013             0.00518             0.00604
 23.3639             0.00456             0.00569
 23.4265             0.00385             0.00515
 23.4892             0.00312             0.00446
 23.5518             0.00243             0.00385
 23.6145             0.00182             0.00374
 23.6771             0.00129             0.00458
 23.7397             0.00083             0.00664
 23.8024             0.00042             0.00976
 23.8650             0.00004             0.01330
 23.9276            -0.00031             0.01620
 23.9903            -0.00065             0.01724
 24.0529            -0.00095             0.01549
 24.1156            -0.00121             0.01066
 24.1782            -0.00144             0.00327
 24.2408            -0.00165            -0.00545
 24.3035            -0.00183            -0.01389
 24.3661            -0.00202            -0.02055
 24.4288            -0.00220            -0.02447
 24.4914            -0.00237            -0.02539
 24.5540            -0.00255            -0.02373
 24.6167            -0.00272            -0.02034
 24.6793            -0.00290            -0.01619
 24.7419            -0.00311            -0.01211
 24.8046            -0.00337            -0.00864
 24.8672            -0.00370            -0.00599
 24.9299            -0.00412            -0.00409
 24.9925            -0.00460            -0.00275
 25.0551            -0.00510            -0.00175
 25.1178            -0.00554            -0.00098
 25.1804            -0.00585            -0.00040
 25.2430            -0.00595            -0.00002
 25.3057            -0.00581             0.00013
 25.3683            -0.00544             0.00003
 25.4310            -0.00487            -0.00027
 25.4936            -0.00416            -0.00073
 25.5562            -0.00338            -0.00128
 25.6189            -0.00260            -0.00181
 25.6815            -0.00186            -0.00218
 25.7441            -0.00119            -0.00227
 25.8068            -0.00061            -0.00198
 25.8694            -0.00010            -0.00135
 25.9321             0.00033            -0.00051
 25.9947             0.00069             0.00030
 26.0573             0.00099             0.00084
 26.1200             0.00126             0.00094
 26.1826             0.00149             0.00058
 26.2452             0.00171            -0.00013
 26.3079             0.00192            -0.00093
 26.3705             0.00211            -0.00153
 26.4332             0.00230            -0.00164
 26.4958             0.00248            -0.00108
 26.5584             0.00267             0.00019
 26.6211             0.00289             0.00200
 26.6837             0.00315             0.00404
 26.7464             0.00348             0.00592
 26.8090             0.00387             0.00732
 26.8716             0.00431             0.00805
 26.9343             0.00474             0.00814
 26.9969             0.00510             0.00782
 27.0595             0.00531             0.00735
 27.1222             0.00532             0.00698
 27.1848             0.00511             0.00680
 27.2475             0.00471             0.00677
 27.3101             0.00416             0.00674
 27.3727             0.00355             0.00657
 27.4354             0.00293             0.00620
 27.4980             0.00237             0.00576
 27.5606             0.00189             0.00551
 27.6233             0.00150             0.00579
 27.6859             0.00116             0.00685
 27.7486             0.00087             0.00865
 27.8112             0.00059             0.01079
 27.8738             0.00032             0.01251
 27.9365             0.00006             0.01290
 27.9991            -0.00019             0.01122
 28.0617            -0.00042             0.00719
 28.1244            -0.00062             0.00117
 28.1870            -0.00082            -0.00589
 28.2497            -0.00100            -0.01272
 28.3123            -0.00120            -0.01811
 28.3749            -0.00140            -0.02122
 28.4376            -0.00162            -0.02179
 28.5002            -0.00185            -0.02013
 28.5628            -0.00209            -0.01689
 28.6255            -0.00234            -0.01293
 28.6881            -0.00261            -0.00902
 28.7508            -0.00291            -0.00569
 28.8134            -0.00327            -0.00321
 28.8760            -0.00366            -0.00158
 28.9387            -0.00409            -0.00060
 29.0013            -0.00450            -0.00003
 29.0640            -0.00486             0.00032
 29.1266            -0.00510             0.00054
 29.1892            -0.00517             0.00063
 29.2519            -0.00505             0.00058
 29.3145            -0.00474             0.00035
 29.3771            -0.00427            -0.00005
 29.4398            -0.00370            -0.00062
 29.5024            -0.00308            -0.00132
 29.5651            -0.00246            -0.00207
 29.6277            -0.00188            -0.00274
 29.6903            -0.00136            -0.00318
 29.7530            -0.00092            -0.00326
 29.8156            -0.00055            -0.00293
 29.8782            -0.00025            -0.00229
 29.9409            -0.00000            -0.00152
 30.0035             0.00021            -0.00087
 30.0662             0.00040            -0.00054
 30.1288             0.00058            -0.00065
 30.1914             0.00076            -0.00114
 30.2541             0.00094            -0.00185
 30.3167             0.00113            -0.00248
 30.3793             0.00133            -0.00273
 30.4420             0.00153            -0.00238
 30.5046             0.00174            -0.00134
 30.5673             0.00197             0.00029
 30.6299             0.00223             0.00223
 30.6925             0.00253             0.00411
 30.7552             0.00287             0.00559
 30.8178             0.00323             0.00647
 30.8804             0.00356             0.00676
 30.9431             0.00381             0.00664
 31.0057             0.00394             0.00638
 31.0684             0.00392             0.00621
 31.1310             0.00373             0.00624
 31.1936             0.00340             0.00644
 31.2563             0.00297             0.00669
 31.3189             0.00251             0.00684
 31.3815             0.00207             0.00681
 31.4442             0.00169             0.00661
 31.5068             0.00138             0.00638
 31.5695             0.00115             0.00631
 31.6321             0.00097             0.00659
 31.6947             0.00081             0.00723
 31.7574             0.00067             0.00800
 31.8200             0.00052             0.00844
 31.8827             0.00036             0.00797
 31.9453             0.00020             0.00614
 32.0079             0.00004             0.00280
 32.0706            -0.00011            -0.00174
 32.1332            -0.00025            -0.00682
 32.1958            -0.00040            -0.01156
 32.2585            -0.00057            -0.01513
 32.3211            -0.00075            -0.01700
 32.3838            -0.00094            -0.01701
 32.4464            -0.00116            -0.01535
 32.5090            -0.00139            -0.01252
 32.5717            -0.00163            -0.00911
 32.6343            -0.00189            -0.00573
 32.6969            -0.00216            -0.00284
 32.7596            -0.00245            -0.00072
 32.8222            -0.00276             0.00059
 32.8849            -0.00308             0.00124
 32.9475            -0.00337             0.00147
 33.0101            -0.00361             0.00150
 33.0728            -0.00376             0.00145
 33.1354            -0.00379             0.00138
 33.1980            -0.00368             0.00127
 33.2607            -0.00344             0.00109
 33.3233            -0.00310             0.00078
 33.3860            -0.00269             0.00032
 33.4486            -0.00224            -0.00027
 33.5112            -0.00179            -0.00096
 33.5739            -0.00138            -0.00164
 33.6365            -0.00101            -0.00217
 33.6991            -0.00069            -0.00245
 33.7618            -0.00044            -0.00244
 33.8244            -0.00023            -0.00221
 33.8871            -0.00007            -0.00191
 33.9497             0.00007            -0.00172
 34.0123             0.00020            -0.00177
 34.0750             0.00034            -0.00210
 34.1376             0.00048            -0.00266
 34.2003             0.00063            -0.00328
 34.2629             0.00080            -0.00374
 34.3255             0.00097            -0.00382
 34.3882             0.00115            -0.00334
 34.4508             0.00133            -0.00225
 34.5134             0.00151            -0.00064
 34.5761             0.00169             0.00125
 34.6387             0.00188             0.00310
 34.7014             0.00207             0.00460
 34.7640             0.00226             0.00557
 34.8266             0.00240             0.00600
 34.8893             0.00249             0.00603
 34.9519             0.00248             0.00590
 35.0145             0.00237             0.00582
 35.0772             0.00216             0.00591
 35.1398             0.00187             0.00616
 35.2025             0.00154             0.00649
 35.2651             0.00121             0.00674
 35.3277             0.00092             0.00682
 35.3904             0.00068             0.00663
 35.4530             0.00052             0.00620
 35.5156             0.00043             0.00563
 35.5783             0.00038             0.00508
 35.6409             0.00036             0.00462
 35.7036             0.00035             0.00420
 35.7662             0.00032             0.00357
 35.8288             0.00027             0.00244
 35.8915             0.00020             0.00055
 35.9541             0.00012            -0.00214
 36.0167             0.00003            -0.00540
 36.0794            -0.00007            -0.00875
 36.1420            -0.00018            -0.01162
 36.2047            -0.00030            -0.01353
 36.2673            -0.00045            -0.01415
 36.3299            -0.00063            -0.01343
 36.3926            -0.00082            -0.01149
 36.4552            -0.00103            -0.00867
 36.5179            -0.00125            -0.00539
 36.5805            -0.00147            -0.00215
 36.6431            -0.00168             0.00060
 36.7058            -0.00189             0.00256
 36.7684            -0.00208             0.00364
 36.8310            -0.00225             0.00395
 36.8937            -0.00239             0.00377
 36.9563            -0.00247             0.00338
 37.0190            -0.00249             0.00297
 37.0816            -0.00242             0.00262
 37.1442            -0.00226             0.00230
 37.2069            -0.00203             0.00197
 37.2695            -0.00174             0.00155
 37.3321            -0.00141             0.00102
 37.3948            -0.00108             0.00037
 37.4574            -0.00075            -0.00035
 37.5201            -0.00046            -0.00104
 37.5827            -0.00021            -0.00160
 37.6453            -0.00001            -0.00196
 37.7080             0.00013            -0.00210
 37.7706             0.00022            -0.00209
 37.8332             0.00028            -0.00205
 37.8959             0.00034            -0.00208
 37.9585             0.00039            -0.00228
 38.0212             0.00046            -0.00266
 38.0838             0.00054            -0.00315
 38.1464             0.00065            -0.00363
 38.2091             0.00078            -0.00394
 38.2717             0.00092            -0.00391
 38.3343             0.00106            -0.00338
 38.3970             0.00122            -0.00232
 38.4596             0.00137            -0.00078
 38.5223             0.00151             0.00103
 38.5849             0.00165             0.00282
 38.6475             0.00178             0.00429
 38.7102             0.00188             0.00526
 38.7728             0.00193             0.00569
 38.8355             0.00192             0.00574
 38.8981             0.00184             0.00561
 38.9607             0.00167             0.00552
 39.0234             0.00144             0.00559
 39.0860             0.00117             0.00583
 39.1486             0.00089             0.00616
 39.2113             0.00063             0.00645
 39.2739             0.00041             0.00658
 39.3366             0.00026             0.00645
 39.3992             0.00017             0.00602
 39.4618             0.00014             0.00534
 39.5245             0.00016             0.00450
 39.5871             0.00020             0.00358
 39.6497             0.00023             0.00256
 39.7124             0.00024             0.00132
 39.7750             0.00022            -0.00030
 39.8377             0.00018            -0.00239
 39.9003             0.00011            -0.00487
 39.9629             0.00002            -0.00750
 40.0256            -0.00008            -0.00987
 40.0882            -0.00020            -0.01161
 40.1508            -0.00034            -0.01245
 40.2135            -0.00051            -0.01226
 40.2761            -0.00070            -0.01106
 40.3388            -0.00093            -0.00899
 40.4014            -0.00116            -0.00628
 40.4640            -0.00140            -0.00324
 40.5267            -0.00161            -0.00027
 40.5893            -0.00179             0.00223
 40.6519            -0.00194             0.00393
 40.7146            -0.00206             0.00471
 40.7772            -0.00214             0.00468
 40.8399            -0.00217             0.00414
 40.9025            -0.00216             0.00342
 40.9651            -0.00209             0.00274
 41.0278            -0.00196             0.00219
 41.0904            -0.00175             0.00171
 41.1531            -0.00150             0.00121
 41.2157            -0.00120             0.00061
 41.2783            -0.00089            -0.00008
 41.3410            -0.00058            -0.00077
 41.4036            -0.00030            -0.00133
 41.4662            -0.00005            -0.00166
 41.5289             0.00014            -0.00173
 41.5915             0.00027            -0.00158
 41.6542             0.00034            -0.00136
 41.7168             0.00037            -0.00121
 41.7794             0.00037            -0.00126
 41.8421             0.00035            -0.00154
 41.9047             0.00035            -0.00201
 41.9673             0.00036            -0.00254
 42.0300             0.00040            -0.00299
 42.0926             0.00045            -0.00322
 42.1553             0.00053            -0.00316
 42.2179             0.00063            -0.00275
 42.2805             0.00075            -0.00199
 42.3432             0.00089            -0.00089
 42.4058             0.00104             0.00043
 42.4684             0.00121             0.00183
 42.5311             0.00139             0.00312
 42.5937             0.00156             0.00410
 42.6564             0.00171             0.00466
 42.7190             0.00182             0.00478
 42.7816             0.00188             0.00459
 42.8443             0.00187             0.00426
 42.9069             0.00179             0.00397
 42.9695             0.00164             0.00383
 43.0322             0.00145             0.00388
 43.0948             0.00123             0.00406
 43.1575             0.00101             0.00428
 43.2201             0.00080             0.00445
 43.2827             0.00063             0.00452
 43.3454             0.00049             0.00449
 43.4080             0.00040             0.00439
 43.4706             0.00035             0.00428
 43.5333             0.00031             0.00416
 43.5959             0.00028             0.00393
 43.6586             0.00023             0.00339
 43.7212             0.00016             0.00235
 43.7838             0.00006             0.00067
 43.8465            -0.00005            -0.00160
 43.9091            -0.00017            -0.00421
 43.9718            -0.00029            -0.00678
 44.0344            -0.00043            -0.00891
 44.0970            -0.00058            -0.01025
 44.1597            -0.00075            -0.01063
 44.2223            -0.00094            -0.01001
 44.2849            -0.00116            -0.00850
 44.3476            -0.00138            -0.00633
 44.4102            -0.00159            -0.00383
 44.4729            -0.00178            -0.00138
 44.5355            -0.00193             0.00065
 44.5981            -0.00206             0.00196
 44.6608            -0.00215             0.00245
 44.7234            -0.00223             0.00226
 44.7860            -0.00229             0.00165
 44.8487            -0.00233             0.00093
 44.9113            -0.00232             0.00031
 44.9740            -0.00225            -0.00016
 45.0366            -0.00210            -0.00056
 45.0992            -0.00189            -0.00102
 45.1619            -0.00160            -0.00158
 45.2245            -0.00128            -0.00219
 45.2871            -0.00094            -0.00267
 45.3498            -0.00061            -0.00282
 45.4124            -0.00031            -0.00251
 45.4751            -0.00007            -0.00177
 45.5377             0.00010            -0.00079
 45.6003             0.00022             0.00013
 45.6630             0.00030             0.00070
 45.7256             0.00034             0.00076
 45.7882             0.00039             0.00031
 45.8509             0.00044            -0.00046
 45.9135             0.00050            -0.00128
 45.9762             0.00058            -0.00187
 46.0388             0.00068            -0.00203
 46.1014             0.00080            -0.00169
 46.1641             0.00093            -0.00093
 46.2267             0.00110             0.00012
 46.2894             0.00130             0.00128
 46.3520             0.00153             0.00239
 46.4146             0.00179             0.00334
 46.4773             0.00207             0.00403
 46.5399             0.00236             0.00444
 46.6025             0.00263             0.00456
 46.6652             0.00288             0.00442
 46.7278             0.00308             0.00409
 46.7905             0.00321             0.00368
 46.8531             0.00325             0.00330
 46.9157             0.00320             0.00305
 46.9784             0.00304             0.00297
 47.0410             0.00279             0.00305
 47.1036             0.00248             0.00326
 47.1663             0.00213             0.00355
 47.2289             0.00177             0.00390
 47.2916             0.00144             0.00434
 47.3542             0.00114             0.00494
 47.4168             0.00088             0.00574
 47.4795             0.00066             0.00672
 47.5421             0.00047             0.00771
 47.6047             0.00029             0.00839
 47.6674             0.00011             0.00837
 47.7300            -0.00007             0.00731
 47.7927            -0.00025             0.00504
 47.8553            -0.00043             0.00168
 47.9179            -0.00059            -0.00237
 47.9806            -0.00075            -0.00649
 48.0432            -0.00091            -0.01000
 48.1058            -0.00108            -0.01236
 48.1685            -0.00126            -0.01326
 48.2311            -0.00146            -0.01271
 48.2938            -0.00167            -0.01099
 48.3564            -0.00187            -0.00858
 48.4190            -0.00205            -0.00603
 48.4817            -0.00221            -0.00383
 48.5443            -0.00236            -0.00230
 48.6070            -0.00252            -0.00153
 48.6696            -0.00269            -0.00140
 48.7322            -0.00286            -0.00161
 48.7949            -0.00303            -0.00190
 48.8575            -0.00316            -0.00207
 48.9201            -0.00321            -0.00212
 48.9828            -0.00314            -0.00214
 49.0454            -0.00294            -0.00227
 49.1081            -0.00261            -0.00254
 49.1707            -0.00219            -0.00287
 49.2333            -0.00171            -0.00307
 49.2960            -0.00124            -0.00288
 49.3586            -0.00080            -0.00218
 49.4212            -0.00043            -0.00101
 49.4839            -0.00013             0.00039
 49.5465             0.00009             0.00169
 49.6092             0.00025             0.00256
 49.6718             0.00038             0.00282
 49.7344             0.00049             0.00246
 49.7971             0.00060             0.00170
 49.8597             0.00072             0.00084
 49.9223             0.00084             0.00018
 49.9850             0.00097            -0.00006
 50.0476             0.00111             0.00016
 50.1103             0.00127             0.00077
 50.1729             0.00145             0.00158
 50.2355             0.00167             0.00239
 50.2982             0.00193             0.00305
 50.3608             0.00222             0.00348
 50.4234             0.00254             0.00367
 50.4861             0.00289             0.00364
 50.5487             0.00325             0.00344
 50.6114             0.00360             0.00311
 50.6740             0.00391             0.00273
 50.7366             0.00414             0.00234
 50.7993             0.00427             0.00203
 50.8619             0.00426             0.00187
 50.9246             0.00411             0.00191
 50.9872             0.00382             0.00214
 51.0498             0.00342             0.00251
 51.1125             0.00295             0.00299
 51.1751             0.00246             0.00356
 51.2377             0.00199             0.00431
 51.3004             0.00156             0.00535
 51.3630             0.00120             0.00678
 51.4257             0.00090             0.00858
 51.4883             0.00065             0.01053
 51.5509             0.00043             0.01224
 51.6136             0.00022             0.01314
 51.6762             0.00002             0.01269
 51.7388            -0.00017             0.01053
 51.8015            -0.00035             0.00666
 51.8641            -0.00051             0.00150
 51.9268            -0.00067            -0.00415
 51.9894            -0.00082            -0.00934
 52.0520            -0.00099            -0.01324
 52.1147            -0.00118            -0.01532
 52.1773            -0.00140            -0.01548
 52.2399            -0.00162            -0.01404
 52.3026            -0.00184            -0.01160
 52.3652            -0.00205            -0.00886
 52.4279            -0.00225            -0.00642
 52.4905            -0.00245            -0.00468
 52.5531            -0.00267            -0.00372
 52.6158            -0.00292            -0.00341
 52.6784            -0.00320            -0.00345
 52.7410            -0.00347            -0.00355
 52.8037            -0.00370            -0.00353
 52.8663            -0.00383            -0.00339
 52.9290            -0.00381            -0.00325
 52.9916            -0.00364            -0.00325
 53.0542            -0.00330            -0.00347
 53.1169            -0.00285            -0.00380
 53.1795            -0.00234            -0.00401
 53.2422            -0.00183            -0.00379
 53.3048            -0.00137            -0.00297
 53.3674            -0.00100            -0.00157
 53.4301            -0.00073             0.00017
 53.4927            -0.00054             0.00189
 53.5553            -0.00043             0.00323
 53.6180            -0.00036             0.00397
 53.6806            -0.00032             0.00407
 53.7433            -0.00029             0.00368
 53.8059            -0.00025             0.00304
 53.8685            -0.00021             0.00241
 53.9312            -0.00016             0.00195
 53.9938            -0.00008             0.00171
 54.0564             0.00002             0.00164
 54.1191             0.00016             0.00163
 54.1817             0.00035             0.00156
 54.2444             0.00060             0.00138
 54.3070             0.00095             0.00108
 54.3696             0.00138             0.00067
 54.4323             0.00191             0.00020
 54.4949             0.00253            -0.00033
 54.5575             0.00318            -0.00091
 54.6202             0.00382            -0.00150
 54.6828             0.00437            -0.00204
 54.7455             0.00476            -0.00239
 54.8081             0.00494            -0.00244
 54.8707             0.00487            -0.00214
 54.9334             0.00458            -0.00155
 54.9960             0.00413            -0.00077
 55.0586             0.00358             0.00009
 55.1213             0.00303             0.00109
 55.1839             0.00254             0.00244
 55.2466             0.00214             0.00448
 55.3092             0.00184             0.00747
 55.3718             0.00162             0.01143
 55.4345             0.00147             0.01597
 55.4971             0.00134             0.02033
 55.5597             0.00122             0.02346
 55.6224             0.00112             0.02431
 55.6850             0.00102             0.02218
 55.7477             0.00093             0.01699
 55.8103             0.00085             0.00945
 55.8729             0.00076             0.00087
 55.9356             0.00067            -0.00712
 55.9982             0.00053            -0.01311
 56.0609             0.00036            -0.01627
 56.1235             0.00016            -0.01657
 56.1861            -0.00008            -0.01466
 56.2488            -0.00035            -0.01160
 56.3114            -0.00065            -0.00846
 56.3740            -0.00100            -0.00599
 56.4367            -0.00143            -0.00454
 56.4993            -0.00196            -0.00402
 56.5620            -0.00260            -0.00412
 56.6246            -0.00331            -0.00447
 56.6872            -0.00404            -0.00478
 56.7499            -0.00470            -0.00496
 56.8125            -0.00520            -0.00504
 56.8751            -0.00547            -0.00516
 56.9378            -0.00547            -0.00542
 57.0004            -0.00521            -0.00586
 57.0631            -0.00476            -0.00636
 57.1257            -0.00420            -0.00674
 57.1883            -0.00364            -0.00678
 57.2510            -0.00313            -0.00635
 57.3136            -0.00273            -0.00544
 57.3762            -0.00244            -0.00418
 57.4389            -0.00223            -0.00282
 57.5015            -0.00210            -0.00158
 57.5642            -0.00200            -0.00065
 57.6268            -0.00192            -0.00006
 57.6894            -0.00185             0.00023
 57.7521            -0.00176             0.00037
 57.8147            -0.00167             0.00048
 57.8773            -0.00154             0.00069
 57.9400            -0.00139             0.00100
 58.0026            -0.00119             0.00139
 58.0653            -0.00095             0.00175
 58.1279            -0.00065             0.00200
 58.1905            -0.00027             0.00209
 58.2532             0.00021             0.00199
 58.3158             0.00081             0.00171
 58.3785             0.00156             0.00127
 58.4411             0.00242             0.00068
 58.5037             0.00337            -0.00003
 58.5664             0.00432            -0.00081
 58.6290             0.00518            -0.00152
 58.6916             0.00582            -0.00200
 58.7543             0.00618            -0.00209
 58.8169             0.00620            -0.00173
 58.8796             0.00593            -0.00100
 58.9422             0.00543            -0.00004
 59.0048             0.00481             0.00099
 59.0675             0.00420             0.00211
 59.1301             0.00368             0.00357
 59.1927             0.00329             0.00577
 59.2554             0.00303             0.00909
 59.3180             0.00287             0.01364
 59.3807             0.00276             0.01905
 59.4433             0.00267             0.02444
 59.5059             0.00256             0.02849
 59.5686             0.00243             0.02983
 59.6312             0.00230             0.02748
 59.6938             0.00216             0.02123
 59.7565             0.00202             0.01192
 59.8191             0.00186             0.00126
 59.8818             0.00167            -0.00863
 59.9444             0.00143            -0.01583
 60.0070             0.00115            -0.01921
 60.0697             0.00083            -0.01876
 60.1323             0.00047            -0.01546
 60.1949             0.00008            -0.01084
 60.2576            -0.00035            -0.00643
 60.3202            -0.00086            -0.00332
 60.3829            -0.00149            -0.00190
 60.4455            -0.00225            -0.00195
 60.5081            -0.00316            -0.00289
 60.5708            -0.00417            -0.00413
 60.6334            -0.00519            -0.00525
 60.6961            -0.00611            -0.00610
 60.7587            -0.00681            -0.00674
 60.8213            -0.00719            -0.00734
 60.8840            -0.00722            -0.00800
 60.9466            -0.00694            -0.00870
 61.0092            -0.00644            -0.00931
 61.0719            -0.00585            -0.00968
 61.1345            -0.00529            -0.00967
 61.1972            -0.00485            -0.00927
 61.2598            -0.00457            -0.00859
 61.3224            -0.00443            -0.00777
 61.3851            -0.00440            -0.00695
 61.4477            -0.00439            -0.00620
 61.5103            -0.00438            -0.00550
 61.5730            -0.00433            -0.00476
 61.6356            -0.00422            -0.00390
 61.6983            -0.00406            -0.00290
 61.7609            -0.00385            -0.00180
 61.8235            -0.00358            -0.00074
 61.8862            -0.00325             0.00011
 61.9488            -0.00285             0.00061
 62.0114            -0.00239             0.00068
 62.0741            -0.00187             0.00035
 62.1367            -0.00128            -0.00026
 62.1994            -0.00062            -0.00096
 62.2620             0.00014            -0.00156
 62.3246             0.00102            -0.00193
 62.3873             0.00204            -0.00201
 62.4499             0.00318            -0.00186
 62.5125             0.00440            -0.00156
 62.5752             0.00562            -0.00116
 62.6378             0.00671            -0.00065
 62.7005             0.00755             0.00004
 62.7631             0.00806             0.00099
 62.8257             0.00821             0.00221
 62.8884             0.00806             0.00361
 62.9510             0.00773             0.00505
 63.0137             0.00735             0.00645
 63.0763             0.00704             0.00791
 63.1389             0.00689             0.00971
 63.2016             0.00691             0.01224
 63.2642             0.00705             0.01579
 63.3268             0.00724             0.02043
 63.3895             0.00743             0.02574
 63.4521             0.00755             0.03077
 63.5148             0.00758             0.03420
 63.5774             0.00753             0.03464
 63.6400             0.00741             0.03118
 63.7027             0.00722             0.02386
 63.7653             0.00699             0.01387
 63.8279             0.00670             0.00326
 63.8906             0.00637            -0.00562
 63.9532             0.00598            -0.01093
 64.0159             0.00555            -0.01198
 64.0785             0.00510            -0.00936
 64.1411             0.00462            -0.00465
 64.2038             0.00412             0.00022
 64.2664             0.00356             0.00367
 64.3290             0.00291             0.00494
 64.3917             0.00213             0.00412
 64.4543             0.00120             0.00193
 64.5170             0.00012            -0.00076
 64.5796            -0.00104            -0.00326
 64.6422            -0.00219            -0.00523
 64.7049            -0.00322            -0.00666
 64.7675            -0.00402            -0.00767
 64.8301            -0.00451            -0.00842
 64.8928            -0.00467            -0.00895
 64.9554            -0.00456            -0.00918
 65.0181            -0.00429            -0.00904
 65.0807            -0.00397            -0.00853
 65.1433            -0.00372            -0.00776
 65.2060            -0.00361            -0.00692
 65.2686            -0.00363            -0.00621
 65.3313            -0.00376            -0.00570
 65.3939            -0.00392            -0.00535
 65.4565            -0.00407            -0.00504
 65.5192            -0.00414            -0.00463
 65.5818            -0.00413            -0.00409
 65.6444            -0.00403            -0.00346
 65.7071            -0.00387            -0.00287
 65.7697            -0.00367            -0.00245
 65.8324            -0.00343            -0.00222
 65.8950            -0.00318            -0.00212
 65.9576            -0.00291            -0.00204
 66.0203            -0.00264            -0.00185
 66.0829            -0.00236            -0.00153
 66.1455            -0.00210            -0.00114
 66.2082            -0.00186            -0.00079
 66.2708            -0.00164            -0.00057
 66.3335            -0.00144            -0.00051
 66.3961            -0.00127            -0.00056
 66.4587            -0.00111            -0.00060
 66.5214            -0.00095            -0.00054
 66.5840            -0.00081            -0.00037
 66.6466            -0.00068            -0.00013
 66.7093            -0.00057             0.00008
 66.7719            -0.00047             0.00016
 66.8346            -0.00039             0.00010
 66.8972            -0.00033            -0.00002
 66.9598            -0.00026            -0.00013
 67.0225            -0.00021            -0.00014
 67.0851            -0.00015            -0.00003
 67.1477            -0.00010             0.00014
 67.2104            -0.00006             0.00028
 67.2730            -0.00003             0.00031
 67.3357            -0.00001             0.00023
 67.3983             0.00000             0.00008
 67.4609             0.00002            -0.00004
 67.5236             0.00003            -0.00005
 67.5862             0.00004             0.00003
 67.6488             0.00006             0.00017
 67.7115             0.00006             0.00028
 67.7741             0.00007             0.00029
 67.8368             0.00006             0.00019
 67.8994             0.00006             0.00004
 67.9620             0.00005            -0.00007
 68.0247             0.00005            -0.00010
 68.0873             0.00005            -0.00002
 68.1500             0.00005             0.00011
 68.2126             0.00005             0.00020
 68.2752             0.00004             0.00019
 68.3379             0.00004             0.00010
 68.4005             0.00002            -0.00004
 68.4631             0.00002            -0.00015
 68.5258             0.00001            -0.00016
 68.5884             0.00001            -0.00008
 68.6511             0.00001             0.00004
 68.7137             0.00001             0.00013
 68.7763             0.00000             0.00012
 68.8390            -0.00000             0.00003
 68.9016            -0.00001            -0.00010
 68.9642            -0.00002            -0.00019
 69.0269            -0.00002            -0.00019
 69.0895            -0.00002            -0.00010
 69.1522            -0.00002             0.00002
 69.2148            -0.00001             0.00010
 69.2774            -0.00002             0.00010
 69.3401            -0.00002             0.00001
 69.4027            -0.00002            -0.00011
 69.4653            -0.00003            -0.00019
 69.5280            -0.00002            -0.00018
 69.5906            -0.00002            -0.00009
 69.6533            -0.00001             0.00003
 69.7159            -0.00001             0.00011
 69.7785            -0.00000             0.00011
 69.8412            -0.00000             0.00002
 69.9038            -0.00000            -0.00008
 69.9664            -0.00000            -0.00015
 70.0291             0.00000            -0.00014
 70.0917             0.00001            -0.00004
 70.1544             0.00002             0.00007
 70.2170             0.00003             0.00015
 70.2796             0.00003             0.00014
 70.3423             0.00004             0.00006
 70.4049             0.00004            -0.00004
 70.4676             0.00004            -0.00010
 70.5302             0.00005            -0.00007
 70.5928             0.00006             0.00002
 70.6555             0.00007             0.00013
 70.7181             0.00008             0.00021
 70.7807             0.00009             0.00020
 70.8434             0.00009             0.00012
 70.9060             0.00009             0.00002
 70.9687             0.00010            -0.00003
 71.0313             0.00011            -0.00000
 71.0939             0.00012             0.00009
 71.1566             0.00013             0.00020
 71.2192             0.00014             0.00027
 71.2818             0.00015             0.00026
 71.3445             0.00015             0.00018
 71.4071             0.00016             0.00009
 71.4698             0.00016             0.00004
 71.5324             0.00017             0.00007
 71.5950             0.00018             0.00016
 71.6577             0.00019             0.00027
 71.7203             0.00020             0.00033
 71.7829             0.00021             0.00032
 71.8456             0.00021             0.00024
 71.9082             0.00021             0.00015
 71.9709             0.00022             0.00010
 72.0335             0.00023             0.00013
 72.0961             0.00024             0.00023
